wavelength
3800.0
3801.0
3802.0
3803.0
3804.0
3805.0
3806.0
3807.0
3808.0
3809.0
3810.0
3811.0
3812.0
3813.0
3814.0
3815.0
3816.0
3817.0
3818.0
3819.0
3820.0
3821.0
3822.0
3823.0
3824.0
3825.0
3826.0
3827.0
3828.0
3829.0
3830.0
3831.0
3832.0
3833.0
3834.0
3835.0
3836.0
3837.0
3838.0
3839.0
3840.0
3841.0
3842.0
3843.0
3844.0
3845.0
3846.0
3847.0
3848.0
3849.0
3850.0
3908.0
3909.0
3910.0
3911.0
3912.0
3913.0
3914.0
3915.0
3916.0
3917.0
3918.0
3919.0
3920.0
3921.0
3922.0
3923.0
3924.0
3925.0
3926.0
3927.0
3928.0
3929.0
3930.0
3931.0
3932.0
3933.0
3934.0
3935.0
3936.0
3937.0
3938.0
3939.0
3940.0
3941.0
3942.0
3943.0
3944.0
3945.0
3946.0
3947.0
3948.0
3949.0
3950.0
3951.0
3988.0
3989.0
3990.0
3991.0
3992.0
3993.0
3994.0
3995.0
3996.0
3997.0
3998.0
3999.0
4000.0
4001.0
4002.0
4003.0
4004.0
4005.0
4006.0
4007.0
4008.0
4009.0
4010.0
4011.0
4012.0
4013.0
4014.0
4015.0
4016.0
4017.0
4018.0
4019.0
4020.0
4021.0
4022.0
4023.0
4024.0
4025.0
4026.0
4027.0
4028.0
4029.0
4030.0
4031.0
4032.0
4033.0
4034.0
4035.0
4036.0
4037.0
4038.0
4039.0
4040.0
4041.0
4042.0
4043.0
4044.0
4045.0
4046.0
4047.0
4048.0
4049.0
4050.0
4051.0
4052.0
4053.0
4054.0
4055.0
4056.0
4057.0
4058.0
4059.0
4060.0
4061.0
4062.0
4063.0
4064.0
4065.0
4066.0
4067.0
4068.0
4069.0
4070.0
4071.0
4072.0
4073.0
4074.0
4075.0
4076.0
4077.0
4078.0
4079.0
4080.0
4081.0
4082.0
4083.0
4120.0
4121.0
4122.0
4123.0
4124.0
4125.0
4126.0
4127.0
4128.0
4129.0
4130.0
4131.0
4132.0
4133.0
4134.0
4135.0
4136.0
4137.0
4138.0
4139.0
4140.0
4141.0
4142.0
4143.0
4144.0
4145.0
4146.0
4147.0
4148.0
4149.0
4150.0
4151.0
4152.0
4153.0
4154.0
4155.0
4156.0
4157.0
4158.0
4159.0
4160.0
4161.0
4162.0
4163.0
4164.0
4165.0
4166.0
4167.0
4168.0
4169.0
4170.0
4171.0
4172.0
4173.0
4174.0
4175.0
4176.0
4177.0
4178.0
4179.0
4180.0
4181.0
4182.0
4183.0
4184.0
4185.0
4186.0
4187.0
4188.0
4189.0
4190.0
4191.0
4192.0
4193.0
4194.0
4195.0
4196.0
4197.0
4198.0
4199.0
4200.0
4201.0
4202.0
4203.0
4204.0
4205.0
4206.0
4207.0
4208.0
4209.0
4210.0
4211.0
4212.0
4213.0
4214.0
4215.0
4216.0
4217.0
4218.0
4219.0
4220.0
4221.0
4222.0
4223.0
4224.0
4225.0
4226.0
4227.0
4228.0
4229.0
4230.0
4231.0
4232.0
4233.0
4234.0
4235.0
4236.0
4237.0
4238.0
4239.0
4240.0
4241.0
4242.0
4243.0
4244.0
4245.0
4246.0
4247.0
4248.0
4249.0
4250.0
4251.0
4252.0
4253.0
4254.0
4255.0
4256.0
4257.0
4258.0
4259.0
4260.0
4261.0
4262.0
4263.0
4264.0
4265.0
4266.0
4267.0
4268.0
4269.0
4270.0
4271.0
4272.0
4273.0
4274.0
4275.0
4276.0
4277.0
4278.0
4279.0
4280.0
4281.0
4282.0
4283.0
4284.0
4285.0
4286.0
4287.0
4288.0
4289.0
4290.0
4291.0
4292.0
4293.0
4294.0
4295.0
4296.0
4297.0
4298.0
4299.0
4300.0
4301.0
4302.0
4303.0
4304.0
4305.0
4306.0
4307.0
4308.0
4309.0
4382.0
4383.0
4384.0
4385.0
4386.0
4387.0
4388.0
4389.0
4390.0
4391.0
4392.0
4393.0
4394.0
4395.0
4396.0
4397.0
4398.0
4399.0
4400.0
4401.0
4402.0
4403.0
4404.0
4405.0
4406.0
4407.0
4408.0
4409.0
4410.0
4411.0
4412.0
4413.0
4414.0
4415.0
4416.0
4417.0
4418.0
4419.0
4420.0
4421.0
4422.0
4423.0
4424.0
4425.0
4426.0
4427.0
4428.0
4429.0
4430.0
4431.0
4432.0
4433.0
4434.0
4435.0
4436.0
4437.0
4438.0
4439.0
4440.0
4441.0
4442.0
4443.0
4444.0
4445.0
4446.0
4447.0
4448.0
4449.0
4450.0
4451.0
4452.0
4453.0
4454.0
4601.0
4602.0
4647.0
4648.0
4704.0
4705.0
4706.0
4707.0
4708.0
4709.0
4710.0
4711.0
4712.0
4749.0
4750.0
4751.0
4752.0
4753.0
4754.0
4755.0
4756.0
4757.0
4758.0
4759.0
4760.0
4761.0
4762.0
4763.0
4764.0
4765.0
4766.0
4767.0
4768.0
4769.0
4770.0
4771.0
4772.0
4773.0
4774.0
4775.0
4776.0
4777.0
4778.0
4779.0
4780.0
4781.0
4782.0
4783.0
4784.0
4785.0
4786.0
4787.0
4788.0
4789.0
4790.0
4791.0
4792.0
4793.0
4794.0
4795.0
4796.0
4797.0
4798.0
4799.0
4800.0
5036.0
5037.0
5038.0
5039.0
5040.0
5041.0
5042.0
5043.0
5044.0
5045.0
5046.0
5047.0
5048.0
5049.0
5050.0
5051.0
5052.0
5053.0
5054.0
5055.0
5056.0
5057.0
5058.0
5059.0
5060.0
5061.0
5062.0
5063.0
5064.0
5065.0
5066.0
5067.0
5068.0
5069.0
5070.0
5071.0
5072.0
5073.0
5074.0
5075.0
5076.0
5077.0
5078.0
5079.0
5080.0
5081.0
5082.0
5083.0
5084.0
5085.0
5086.0
5087.0
5088.0
5089.0
5090.0
5091.0
5092.0
5093.0
5094.0
5095.0
5096.0
5097.0
5098.0
5099.0
5100.0
5101.0
5102.0
5103.0
5104.0
5105.0
5106.0
5107.0
5108.0
5109.0
5110.0
5111.0
5112.0
5113.0
5114.0
5115.0
5116.0
5117.0
5118.0
5119.0
5120.0
5121.0
5122.0
5123.0
5124.0
5125.0
5126.0
5127.0
5216.0
5381.0
5382.0
5383.0
5384.0
5385.0
5386.0
5387.0
5388.0
5389.0
5390.0
5391.0
5392.0
5393.0
5394.0
5395.0
5443.0
5444.0
5445.0
5446.0
5447.0
5448.0
5449.0
5450.0
5451.0
5452.0
5453.0
5454.0
5455.0
5456.0
5457.0
5458.0
5459.0
5460.0
5461.0
5462.0
5463.0
5464.0
5465.0
5466.0
5467.0
5468.0
5469.0
5470.0
5471.0
5472.0
5473.0
5474.0
5475.0
5476.0
5477.0
5478.0
5479.0
5480.0
5481.0
5482.0
5483.0
5484.0
5485.0
5486.0
5487.0
5488.0
5489.0
5490.0
5491.0
5492.0
5493.0
5494.0
5495.0
5496.0
5497.0
5498.0
5499.0
5500.0
5501.0
5502.0
5503.0
5504.0
5505.0
5506.0
5507.0
5508.0
5509.0
5510.0
5511.0
5512.0
5513.0
5514.0
5515.0
5516.0
5517.0
5518.0
5519.0
5520.0
5521.0
5522.0
5523.0
5524.0
5525.0
5526.0
5527.0
5528.0
5529.0
5530.0
5531.0
5532.0
5533.0
5534.0
5535.0
5536.0
5537.0
5538.0
5539.0
5540.0
5541.0
5542.0
5543.0
5544.0
5545.0
5546.0
5547.0
5548.0
5549.0
5550.0
5551.0
5552.0
5553.0
5554.0
5555.0
5556.0
5557.0
5558.0
5559.0
5596.0
5597.0
5598.0
5599.0
5600.0
5601.0
5602.0
5603.0
5604.0
5605.0
5606.0
5607.0
5608.0
5609.0
5610.0
5611.0
5612.0
5613.0
5614.0
5615.0
5616.0
5617.0
5618.0
5619.0
5620.0
5621.0
5622.0
5623.0
5624.0
5625.0
5626.0
5627.0
5628.0
5629.0
5630.0
5631.0
5632.0
5633.0
5634.0
5635.0
5636.0
5637.0
5638.0
5639.0
5640.0
5641.0
5642.0
5643.0
5644.0
5645.0
5646.0
5647.0
5648.0
5649.0
5650.0
5651.0
5652.0
5653.0
5654.0
5655.0
5656.0
5657.0
5658.0
5659.0
5660.0
5661.0
5662.0
5663.0
5664.0
5665.0
5666.0
5667.0
5668.0
5669.0
5670.0
5671.0
5672.0
5673.0
5674.0
5675.0
5676.0
5677.0
5678.0
5679.0
5680.0
5681.0
5682.0
5683.0
5684.0
5685.0
5686.0
5687.0
5688.0
5689.0
5690.0
5691.0
5692.0
5693.0
5694.0
5695.0
5696.0
5697.0
5698.0
5699.0
5700.0
5701.0
5702.0
5703.0
5704.0
5705.0
5706.0
5707.0
5708.0
5709.0
5710.0
5711.0
5712.0
5713.0
5714.0
5715.0
5716.0
5717.0
5718.0
5719.0
5720.0
5721.0
5722.0
5723.0
5724.0
5725.0
5726.0
5727.0
5728.0
5729.0
5730.0
5731.0
5732.0
5733.0
5734.0
5735.0
5736.0
5737.0
5774.0
5775.0
5776.0
5777.0
5778.0
5779.0
5780.0
5781.0
5782.0
5783.0
5784.0
5785.0
5786.0
5787.0
5788.0
5789.0
5790.0
5791.0
5792.0
5793.0
5794.0
5795.0
5796.0
5797.0
5798.0
5799.0
5800.0
5801.0
5802.0
5803.0
5804.0
5805.0
5806.0
5807.0
5808.0
5809.0
5810.0
5811.0
5812.0
5813.0
5814.0
5815.0
5816.0
5817.0
5818.0
5819.0
5820.0
5821.0
5822.0
5823.0
5824.0
5825.0
5826.0
5827.0
5828.0
5829.0
5830.0
5831.0
5832.0
5833.0
5834.0
5835.0
5836.0
5837.0
5838.0
5839.0
5840.0
5841.0
5842.0
5843.0
5844.0
5845.0
5846.0
5847.0
5848.0
5849.0
5850.0
5851.0
5852.0
5853.0
5854.0
5855.0
5856.0
5857.0
5894.0
5895.0
5896.0
5897.0
5898.0
5899.0
5900.0
5901.0
5902.0
5903.0
5904.0
5905.0
5906.0
5907.0
5908.0
5909.0
5910.0
5911.0
5912.0
5913.0
5914.0
5915.0
5916.0
5917.0
5918.0
5919.0
5920.0
5921.0
5922.0
5923.0
5924.0
5925.0
5926.0
5927.0
5928.0
5929.0
5930.0
5931.0
5932.0
5933.0
5934.0
5935.0
5936.0
5937.0
5938.0
5939.0
5940.0
5941.0
5942.0
5943.0
5944.0
5945.0
5946.0
5947.0
5948.0
5949.0
5950.0
5951.0
5952.0
5953.0
5954.0
5955.0
5956.0
5957.0
5958.0
5959.0
5960.0
5961.0
5962.0
5963.0
5964.0
5965.0
5966.0
5967.0
5968.0
5969.0
5970.0
5971.0
5972.0
5973.0
5974.0
5975.0
5976.0
5977.0
5978.0
5979.0
5980.0
5981.0
5982.0
5983.0
5984.0
5985.0
5986.0
5987.0
5988.0
5989.0
5990.0
5991.0
5992.0
5993.0
5994.0
5995.0
5996.0
5997.0
5998.0
5999.0
6000.0
6001.0
6002.0
6003.0
6004.0
6005.0
6006.0
6007.0
6008.0
6009.0
6010.0
6011.0
6012.0
6013.0
6014.0
6015.0
6016.0
6017.0
6018.0
6019.0
6020.0
6021.0
6022.0
6023.0
6024.0
6025.0
6026.0
6027.0
6028.0
6029.0
6030.0
6031.0
6032.0
6033.0
6034.0
6035.0
6036.0
6037.0
6038.0
6039.0
6040.0
6041.0
6042.0
6043.0
6044.0
6045.0
6046.0
6047.0
6048.0
6049.0
6050.0
6051.0
6052.0
6053.0
6054.0
6055.0
6056.0
6057.0
6058.0
6059.0
6060.0
6061.0
6062.0
6063.0
6064.0
6065.0
6066.0
6067.0
6068.0
6105.0
6106.0
6107.0
6108.0
6109.0
6110.0
6111.0
6112.0
6113.0
6114.0
6115.0
6116.0
6117.0
6118.0
6119.0
6120.0
6121.0
6122.0
6123.0
6124.0
6125.0
6126.0
6127.0
6128.0
6129.0
6130.0
6131.0
6132.0
6133.0
6134.0
6135.0
6136.0
6137.0
6138.0
6139.0
6140.0
6141.0
6142.0
6143.0
6144.0
6145.0
6146.0
6147.0
6148.0
6149.0
6150.0
6151.0
6152.0
6153.0
6154.0
6155.0
6156.0
6157.0
6158.0
6159.0
6160.0
6161.0
6162.0
6163.0
6164.0
6165.0
6166.0
6167.0
6168.0
6169.0
6170.0
6171.0
6172.0
6173.0
6174.0
6175.0
6176.0
6177.0
6178.0
6179.0
6180.0
6181.0
6182.0
6183.0
6184.0
6185.0
6186.0
6187.0
6188.0
6189.0
6190.0
6191.0
6192.0
6193.0
6194.0
6195.0
6196.0
6197.0
6198.0
6199.0
6200.0
6201.0
6202.0
6203.0
6204.0
6205.0
6206.0
6207.0
6208.0
6209.0
6210.0
6211.0
6212.0
6213.0
6214.0
6215.0
6216.0
6217.0
6218.0
6219.0
6220.0
6221.0
6222.0
6223.0
6224.0
6225.0
6226.0
6227.0
6228.0
6229.0
6230.0
6231.0
6232.0
6233.0
6234.0
6235.0
6236.0
6237.0
6238.0
6239.0
6240.0
6241.0
6242.0
6243.0
6244.0
6245.0
6246.0
6247.0
6248.0
6249.0
6250.0
6251.0
6252.0
6253.0
6254.0
6255.0
6256.0
6257.0
6258.0
6259.0
6260.0
6261.0
6262.0
6263.0
6264.0
6265.0
6266.0
6267.0
6268.0
6269.0
6270.0
6271.0
6272.0
6273.0
6274.0
6275.0
6276.0
6277.0
6278.0
6279.0
6280.0
6281.0
6282.0
6283.0
6331.0
6332.0
6333.0
6334.0
6335.0
6336.0
6337.0
6338.0
6339.0
6340.0
6341.0
6342.0
6343.0
6344.0
6381.0
6382.0
6383.0
6384.0
6385.0
6386.0
6387.0
6388.0
6389.0
6390.0
6391.0
6392.0
6393.0
6394.0
6395.0
6396.0
6397.0
6398.0
6399.0
6400.0
6401.0
6402.0
6403.0
6404.0
6405.0
6406.0
6407.0
6408.0
6409.0
6410.0
6411.0
6412.0
6413.0
6414.0
6415.0
6416.0
6417.0
6418.0
6419.0
6420.0
6421.0
6422.0
6749.0
6750.0
6751.0
6752.0
6753.0
6754.0
6755.0
6756.0
6757.0
6758.0
6759.0
6760.0
6761.0
6762.0
6763.0
6764.0
6765.0
6766.0
6767.0
6768.0
6769.0
6770.0
6771.0
6772.0
6773.0
6774.0
6775.0
6776.0
6777.0
6778.0
6779.0
6780.0
6781.0
6782.0
6783.0
6784.0
6785.0
6786.0
6787.0
6788.0
6789.0
6790.0
6791.0
6792.0
6793.0
6794.0
6795.0
6796.0
6797.0
6798.0
6799.0
6800.0
6801.0
6802.0
6803.0
6804.0
6805.0
6806.0
6807.0
6808.0
6809.0
6810.0
6811.0
6812.0
6813.0
6814.0
6815.0
6816.0
6817.0
6818.0
6819.0
6820.0
6821.0
6822.0
6823.0
6824.0
6825.0
6826.0
6827.0
6828.0
6829.0
6830.0
6831.0
6832.0
6833.0
6834.0
6835.0
6836.0
6837.0
6838.0
6839.0
6840.0
6841.0
6842.0
6843.0
6844.0
6845.0
6846.0
6847.0
6848.0
6849.0
6850.0
6851.0
6852.0
6853.0
6854.0
6855.0
6856.0
6857.0
6858.0
6859.0
6860.0
6861.0
6862.0
6863.0
6864.0
6865.0
6866.0
6867.0
6868.0
6869.0
6870.0
6871.0
6872.0
6873.0
6874.0
6875.0
6876.0
6877.0
6878.0
6879.0
6880.0
6881.0
6882.0
6883.0
6884.0
6885.0
6886.0
6887.0
6888.0
6889.0
6890.0
6891.0
6892.0
6893.0
6894.0
6895.0
6896.0
6897.0
6898.0
6899.0
6900.0
6901.0
6902.0
6903.0
6904.0
6905.0
6906.0
6907.0
6908.0
6909.0
6910.0
6911.0
6912.0
6913.0
6914.0
6915.0
6916.0
6917.0
6918.0
6919.0
6920.0
6921.0
6922.0
6923.0
6924.0
6925.0
6926.0
6927.0
6928.0
6929.0
6930.0
6931.0
6932.0
6933.0
6934.0
6935.0
6936.0
6937.0
6938.0
6939.0
6940.0
6941.0
6942.0
6943.0
6944.0
6945.0
6946.0
6947.0
6948.0
6949.0
6950.0
6951.0
6952.0
6953.0
6954.0
6955.0
6956.0
6957.0
6958.0
6959.0
6960.0
6961.0
6962.0
6963.0
6964.0
6965.0
6966.0
6967.0
6968.0
6969.0
6970.0
6971.0
6972.0
6973.0
6974.0
6975.0
6976.0
6977.0
6978.0
6979.0
6980.0
6981.0
6982.0
6983.0
6984.0
6985.0
6986.0
6987.0
6988.0
6989.0
6990.0
6991.0
6992.0
6993.0
6994.0
6995.0
6996.0
6997.0
6998.0
6999.0
7000.0
7001.0
7002.0
7003.0
7004.0
7005.0
7006.0
7007.0
7008.0
7009.0
7010.0
7011.0
7012.0
7013.0
7014.0
7015.0
7016.0
7017.0
7018.0
7019.0
7020.0
7021.0
7022.0
7023.0
7024.0
7025.0
7026.0
7027.0
7028.0
7029.0
7030.0
7031.0
7032.0
7033.0
7034.0
7035.0
7036.0
7037.0
7038.0
7039.0
7040.0
7041.0
7042.0
7043.0
7044.0
7045.0
7046.0
7083.0
7084.0
7085.0
7086.0
7087.0
7088.0
7089.0
7090.0
7091.0
7092.0
7093.0
7094.0
7095.0
7096.0
7097.0
7098.0
7099.0
7100.0
7101.0
7102.0
7103.0
7104.0
7105.0
7106.0
7107.0
7108.0
7109.0
7110.0
7111.0
7112.0
7113.0
7114.0
7115.0
7116.0
7117.0
7118.0
7155.0
7156.0
7157.0
7158.0
7159.0
7160.0
7161.0
7162.0
7163.0
7164.0
7165.0
7166.0
7167.0
7168.0
7169.0
7170.0
7171.0
7172.0
7173.0
7174.0
7175.0
7176.0
7177.0
7178.0
7179.0
7180.0
7181.0
7182.0
7183.0
7184.0
7185.0
7186.0
7187.0
7188.0
7189.0
7190.0
7191.0
7192.0
7193.0
7194.0
7195.0
7196.0
7197.0
7198.0
7199.0
7200.0
7201.0
7202.0
7203.0
7204.0
7205.0
7206.0
7207.0
7208.0
7209.0
7210.0
7211.0
7212.0
7213.0
7214.0
7215.0
7216.0
7217.0
7218.0
7219.0
7220.0
7221.0
7222.0
7223.0
7224.0
7225.0
7226.0
7227.0
7228.0
7229.0
7230.0
7231.0
7232.0
7233.0
7234.0
7235.0
7236.0
7237.0
7238.0
7239.0
7240.0
7241.0
7242.0
7243.0
7244.0
7245.0
7246.0
7247.0
7248.0
7249.0
7250.0
7251.0
7252.0
7253.0
7254.0
7255.0
7256.0
7257.0
7258.0
7259.0
7260.0
7261.0
7262.0
7263.0
7264.0
7265.0
7266.0
7267.0
7268.0
7269.0
7270.0
7271.0
7272.0
7273.0
7274.0
7275.0
7276.0
7277.0
7278.0
7279.0
7280.0
7281.0
7282.0
7283.0
7284.0
7285.0
7286.0
7287.0
7288.0
7289.0
7290.0
7291.0
7292.0
7293.0
7294.0
7295.0
7296.0
7297.0
7298.0
7299.0
7300.0
7301.0
7302.0
7303.0
7304.0
7305.0
7306.0
7307.0
7308.0
7309.0
7310.0
7311.0
7312.0
7313.0
7314.0
7315.0
7316.0
7317.0
7318.0
7319.0
7320.0
7321.0
7322.0
7323.0
7324.0
7325.0
7326.0
7327.0
7328.0
7329.0
7330.0
7331.0
7332.0
7333.0
7334.0
7335.0
7336.0
7337.0
7338.0
7339.0
7340.0
7341.0
7342.0
7343.0
7344.0
7345.0
7346.0
7347.0
7348.0
7349.0
7350.0
7351.0
7352.0
7353.0
7354.0
7355.0
7356.0
7357.0
7358.0
7359.0
7360.0
7361.0
7362.0
7363.0
7364.0
7365.0
7366.0
7367.0
7368.0
7369.0
7370.0
7371.0
7372.0
7373.0
7374.0
7375.0
7376.0
7377.0
7378.0
7379.0
7380.0
7381.0
7382.0
7383.0
7384.0
7385.0
7386.0
7387.0
7388.0
7389.0
7390.0
7391.0
7392.0
7393.0
7394.0
7395.0
7396.0
7397.0
7398.0
7399.0
7400.0
7401.0
7402.0
7403.0
7404.0
7405.0
7406.0
7407.0
7408.0
7409.0
7410.0
7411.0
7412.0
7413.0
7414.0
7415.0
7416.0
7417.0
7418.0
7419.0
7420.0
7421.0
7422.0
7423.0
7424.0
7425.0
7426.0
7427.0
7428.0
7429.0
7430.0
7431.0
7432.0
7433.0
7434.0
7435.0
7436.0
7437.0
7438.0
7439.0
7440.0
7441.0
7442.0
7443.0
7444.0
7445.0
7446.0
7447.0
7448.0
7449.0
7450.0
7451.0
7452.0
7453.0
7454.0
7455.0
7456.0
7457.0
7458.0
7459.0
7460.0
7461.0
7462.0
7463.0
7464.0
7465.0
7466.0
7467.0
7468.0
7469.0
7470.0
7471.0
7472.0
7473.0
7474.0
7475.0
7476.0
7477.0
7478.0
7479.0
7480.0
7481.0
7482.0
7483.0
7484.0
7485.0
7486.0
7487.0
7488.0
7489.0
7490.0
7491.0
7492.0
7493.0
7494.0
7495.0
7496.0
7497.0
7498.0
7499.0
